DASYLab - V 9.00.02
Worksheet name: LeakageCurrentTesterV4DevSML40sAna200V
Recording Date     : 18-03-2014, 09:14:19
Block Length       : 1
Delta              : 0.2 sec.
Number of Channels : 1
Measurement time[s]	Write 0 [nA]	
0.0	0.000	
0.2	0.000	
0.4	0.000	
0.6	0.000	
0.8	14.900	
1.0	14.400	
1.2	13.900	
1.4	13.900	
1.6	13.400	
1.8	13.400	
2.0	13.400	
2.2	13.400	
2.4	13.400	
2.6	999999872.000	
2.8	999999872.000	
3.0	3277.100	
3.2	3277.100	
3.4	9133.300	
3.6	1491.100	
3.8	866.900	
4.0	618.500	
4.2	480.900	
4.4	398.900	
4.6	336.100	
4.8	294.300	
5.0	260.800	
5.2	236.600	
5.4	219.100	
5.6	213.900	
5.8	191.200	
6.0	177.800	
6.2	174.700	
6.4	152.000	
6.6	149.000	
6.8	146.400	
7.0	141.700	
7.2	136.100	
7.4	129.400	
7.6	-19737.600	
7.8	-24833.600	
8.0	-30089.301	
8.2	-36440.301	
8.4	-45322.102	
8.6	-40076.098	
8.8	-20649.900	
9.0	-9804.400	
9.2	-4142.400	
9.4	-1909.600	
9.6	-1033.900	
9.8	-663.900	
10.0	-485.000	
10.2	433.500	
10.4	433.500	
10.6	3344.100	
10.8	3826.000	
11.0	3826.000	
11.2	4170.800	
11.4	4170.800	
11.6	664.900	
11.8	401.500	
12.0	298.900	
12.2	238.600	
12.4	198.400	
12.6	174.700	
12.8	162.900	
13.0	157.700	
13.2	136.100	
13.4	129.900	
13.6	127.300	
13.8	123.200	
14.0	98.400	
14.2	98.400	
14.4	97.900	
14.6	96.400	
14.8	93.300	
15.0	89.200	
15.2	85.000	
15.4	81.400	
15.6	-19047.898	
15.8	-23891.398	
16.0	-28654.900	
16.2	-35219.801	
16.4	-39964.801	
16.6	-29036.301	
16.8	-17709.400	
17.0	-9606.399	
17.2	-5091.900	
17.4	-2698.800	
17.6	-1491.600	
17.8	-897.400	
18.0	-596.300	
18.2	109.800	
18.4	109.800	
18.6	3141.000	
18.8	3470.900	
19.0	3470.900	
19.2	3340.500	
19.4	3234.800	
19.6	518.000	
19.8	312.300	
20.0	229.400	
20.2	181.900	
20.4	155.100	
20.6	142.800	
20.8	137.600	
21.0	112.400	
21.2	106.700	
21.4	104.100	
21.6	99.500	
21.8	93.800	
22.0	87.100	
22.2	66.000	
22.4	68.600	
22.6	68.000	
22.8	66.000	
23.0	63.900	
23.2	61.300	
23.4	59.800	
23.6	-18394.400	
23.8	-23143.500	
24.0	-28531.699	
24.2	-34548.801	
24.4	-37819.098	
24.6	-27510.701	
24.8	-16972.900	
25.0	-9438.900	
25.2	-5125.900	
25.4	-2775.000	
25.6	-1545.200	
25.8	-926.200	
26.0	-608.700	
26.2	369.000	
26.4	369.000	
26.6	2920.400	
26.8	2920.400	
27.0	3087.400	
27.2	3087.400	
27.4	3085.800	
27.6	448.900	
27.8	262.300	
28.0	190.200	
28.2	162.400	
28.4	131.900	
28.6	119.600	
28.8	116.000	
29.0	88.700	
29.2	86.600	
29.4	84.500	
29.6	80.900	
29.8	75.800	
30.0	70.600	
30.2	65.500	
30.4	61.300	
30.6	57.700	
30.8	54.100	
31.0	51.500	
31.2	49.500	
31.4	47.900	
31.6	46.400	
31.8	44.800	
32.0	43.300	
32.2	40.700	
32.4	39.700	
32.6	37.600	
32.8	37.100	
33.0	36.600	
33.2	35.000	
33.4	34.500	
33.6	33.500	
33.8	32.500	
34.0	32.000	
34.2	31.400	
34.4	30.900	
34.6	29.400	
34.8	28.300	
35.0	27.300	
35.2	26.300	
35.4	26.300	
35.6	26.300	
35.8	26.300	
36.0	25.800	
36.2	24.700	
36.4	23.700	
36.6	22.700	
36.8	21.600	
37.0	21.600	
37.2	22.200	
37.4	22.200	
37.6	22.200	
37.8	22.700	
38.0	22.700	
38.2	22.700	
38.4	22.700	
38.6	22.200	
38.8	21.100	
39.0	20.100	
39.2	19.600	
39.4	19.100	
39.6	20.100	
39.8	20.600	
40.0	21.100	
40.2	21.100	
40.4	20.100	
40.6	19.600	
40.8	20.100	
41.0	20.600	
41.2	21.100	
41.4	21.100	
41.6	20.600	
41.8	20.100	
42.0	20.100	
42.2	19.600	
42.4	19.600	
42.6	19.600	
42.8	19.100	
43.0	19.600	
43.2	20.100	
43.4	20.600	
43.6	20.600	
43.8	20.600	
44.0	20.600	
44.2	20.100	
44.4	20.600	
44.6	19.600	
44.8	19.100	
45.0	18.600	
45.2	18.000	
45.4	19.100	
45.6	19.100	
45.8	19.600	
46.0	20.100	
46.2	21.100	
46.4	21.100	
46.6	20.600	
46.8	19.600	
47.0	18.000	
47.2	17.000	
47.4	17.500	
47.6	17.000	
47.8	17.000	
48.0	17.500	
48.2	18.000	
48.4	18.000	
48.6	18.000	
48.8	18.000	
49.0	17.000	
49.2	16.000	
49.4	14.900	
49.6	16.500	
49.8	17.000	
50.0	18.000	
50.2	18.600	
50.4	17.000	
50.6	17.000	
50.8	16.500	
51.0	17.000	
51.2	16.000	
51.4	15.500	
51.6	16.500	
51.8	17.000	
52.0	18.000	
52.2	19.100	
52.4	18.000	
52.6	17.000	
52.8	16.000	
53.0	15.500	
53.2	14.400	
53.4	14.400	
53.6	14.900	
53.8	15.500	
54.0	16.000	
54.2	16.000	
54.4	15.500	
54.6	15.500	
54.8	15.500	
55.0	15.500	
55.2	16.000	
55.4	15.500	
55.6	14.400	
55.8	13.900	
56.0	13.400	
56.2	13.900	
56.4	13.900	
56.6	14.400	
56.8	14.400	
57.0	13.900	
57.2	13.900	
57.4	13.900	
57.6	13.400	
57.8	13.400	
58.0	13.900	
58.2	13.400	
58.4	13.400	
58.6	13.400	
58.8	13.900	
59.0	14.400	
59.2	14.400	
59.4	14.900	
59.6	13.400	
59.8	13.400	
60.0	13.400	
60.2	12.400	
60.4	12.900	
60.6	11.300	
60.8	10.800	
61.0	10.800	
61.2	11.900	
61.4	12.400	
61.6	12.400	
61.8	11.900	
62.0	11.300	
62.2	11.300	
62.4	11.900	
62.6	12.900	
62.8	13.400	
63.0	13.400	
63.2	12.900	
63.4	11.900	
63.6	11.900	
63.8	11.900	
64.0	11.300	
64.2	11.300	
64.4	10.300	
64.6	9.800	
64.8	9.300	
65.0	8.200	
65.2	7.700	
65.4	7.700	
65.6	7.200	
65.8	6.700	
66.0	6.700	
66.2	6.700	
66.4	7.200	
66.6	-16252.800	
66.8	-21715.799	
67.0	-26379.801	
67.2	-32572.102	
67.4	-32890.598	
67.6	-24155.301	
67.8	-15857.000	
68.0	-9594.100	
68.2	-5661.900	
