DASYLab - V 9.00.02
Worksheet name: LeakageCurrentTesterV4DevSML40sAna200V
Recording Date     : 18-03-2014, 09:04:57
Block Length       : 1
Delta              : 0.2 sec.
Number of Channels : 1
Measurement time[s]	Write 0 [nA]	
0.0	0.000	
0.2	0.000	
0.4	0.000	
0.6	20.600	
0.8	19.600	
1.0	18.600	
1.2	18.000	
1.4	17.000	
1.6	16.500	
1.8	16.000	
2.0	14.900	
2.2	14.900	
2.4	3101.800	
2.6	3101.800	
2.8	3283.200	
3.0	3283.200	
3.2	3216.800	
3.4	3216.800	
3.6	1149.400	
3.8	729.300	
4.0	538.600	
4.2	426.300	
4.4	350.500	
4.6	303.100	
4.8	257.700	
5.0	233.500	
5.2	207.200	
5.4	192.800	
5.6	188.100	
5.8	163.900	
6.0	159.800	
6.2	155.700	
6.4	128.900	
6.6	127.800	
6.8	126.300	
7.0	123.700	
7.2	105.700	
7.4	104.600	
7.6	-205.700	
7.8	-454.100	
8.0	-836.500	
8.2	-1720.000	
8.4	-12152.601	
8.6	-32651.000	
8.8	-16992.398	
9.0	-7721.000	
9.2	-3507.400	
9.4	-1732.800	
9.6	-984.500	
9.8	-643.200	
10.0	-467.000	
10.2	262.300	
10.4	262.300	
10.6	833.400	
10.8	833.400	
11.0	1035.000	
11.2	1035.000	
11.4	1316.900	
11.6	522.600	
11.8	339.100	
12.0	261.300	
12.2	209.800	
12.4	180.400	
12.6	157.200	
12.8	145.900	
13.0	140.200	
13.2	119.100	
13.4	111.800	
13.6	109.800	
13.8	105.700	
14.0	99.500	
14.2	93.800	
14.4	88.700	
14.6	84.500	
14.8	80.400	
15.0	76.800	
15.2	72.700	
15.4	68.600	
15.6	-170.600	
15.8	-428.800	
16.0	-883.400	
16.2	-3996.100	
16.4	-18347.000	
16.6	-26577.199	
16.8	-14926.601	
17.0	-8079.800	
17.2	-4305.300	
17.4	-2306.000	
17.6	-1306.600	
17.8	-810.200	
18.0	-551.500	
18.2	234.500	
18.4	234.500	
18.6	753.000	
18.8	753.000	
19.0	753.000	
19.2	948.400	
19.4	948.400	
19.6	948.400	
19.8	267.000	
20.0	202.600	
20.2	163.900	
20.4	142.800	
20.6	130.400	
20.8	126.800	
21.0	102.600	
21.2	97.400	
21.4	94.300	
21.6	89.700	
21.8	83.500	
22.0	77.800	
22.2	73.200	
22.4	69.100	
22.6	65.500	
22.8	61.300	
23.0	57.700	
23.2	55.200	
23.4	52.100	
23.6	-171.100	
23.8	-415.400	
24.0	-873.100	
24.2	-4090.900	
24.4	-18644.898	
24.6	-25378.900	
24.8	-14493.700	
25.0	-7990.600	
25.2	-4327.500	
25.4	-2348.800	
25.6	-1333.900	
25.8	-823.100	
26.0	-553.000	
26.2	214.900	
26.4	214.900	
26.6	699.400	
26.8	699.400	
27.0	699.400	
27.2	852.500	
27.4	852.500	
27.6	362.300	
27.8	284.500	
28.0	203.600	
28.2	158.800	
28.4	130.400	
28.6	118.000	
28.8	93.800	
29.0	91.700	
29.2	87.100	
29.4	84.500	
29.6	80.900	
29.8	76.300	
30.0	74.200	
30.2	56.700	
30.4	56.700	
30.6	56.200	
30.8	55.700	
31.0	54.100	
31.2	52.600	
31.4	50.000	
31.6	47.900	
31.8	47.400	
32.0	46.400	
32.2	45.900	
32.4	44.800	
32.6	44.800	
32.8	44.300	
33.0	43.800	
33.2	42.800	
33.4	41.700	
33.6	41.200	
33.8	40.200	
34.0	38.700	
34.2	37.100	
34.4	35.600	
34.6	34.500	
34.8	34.000	
35.0	33.500	
35.2	33.000	
35.4	33.500	
35.6	33.500	
35.8	33.500	
36.0	32.500	
36.2	31.400	
36.4	30.400	
36.6	29.400	
36.8	28.300	
37.0	27.800	
37.2	27.300	
37.4	26.800	
37.6	26.300	
37.8	25.300	
38.0	24.700	
38.2	24.700	
38.4	25.300	
38.6	25.300	
38.8	24.700	
39.0	24.200	
39.2	23.200	
39.4	22.200	
39.6	21.100	
39.8	21.600	
40.0	22.200	
40.2	22.700	
40.4	23.200	
40.6	23.200	
40.8	22.700	
41.0	22.200	
41.2	21.100	
41.4	20.100	
41.6	20.100	
41.8	19.600	
42.0	19.600	
42.2	19.100	
42.4	19.600	
42.6	19.100	
42.8	19.100	
43.0	19.100	
43.2	18.000	
43.4	18.600	
43.6	18.600	
43.8	18.000	
44.0	18.000	
44.2	18.000	
44.4	17.000	
44.6	17.000	
44.8	17.500	
45.0	17.000	
45.2	17.500	
45.4	17.000	
45.6	16.000	
45.8	14.900	
46.0	14.900	
46.2	14.900	
46.4	16.000	
46.6	15.500	
46.8	14.900	
47.0	14.400	
47.2	14.400	
47.4	14.900	
47.6	15.500	
47.8	16.000	
48.0	15.500	
48.2	16.000	
48.4	16.500	
48.6	16.500	
48.8	16.500	
49.0	15.500	
49.2	14.900	
49.4	14.900	
49.6	14.900	
49.8	14.400	
50.0	14.400	
50.2	13.900	
50.4	12.900	
50.6	12.900	
50.8	13.400	
51.0	13.900	
51.2	14.400	
51.4	14.900	
51.6	15.500	
51.8	14.900	
52.0	14.400	
52.2	15.500	
52.4	15.500	
52.6	16.000	
52.8	16.000	
53.0	13.900	
53.2	13.900	
53.4	13.400	
53.6	13.400	
53.8	12.900	
54.0	12.900	
54.2	12.900	
54.4	13.900	
54.6	14.900	
54.8	14.900	
55.0	14.900	
55.2	14.900	
55.4	13.400	
55.6	13.400	
55.8	12.900	
56.0	12.900	
56.2	13.400	
56.4	13.900	
56.6	14.400	
56.8	14.400	
57.0	14.400	
57.2	13.900	
57.4	12.900	
57.6	11.900	
57.8	10.800	
58.0	10.800	
58.2	10.800	
58.4	10.800	
58.6	10.800	
58.8	9.800	
59.0	9.300	
59.2	8.200	
59.4	8.200	
59.6	8.200	
59.8	8.200	
60.0	8.800	
60.2	8.200	
60.4	7.700	
60.6	7.700	
60.8	7.700	
61.0	8.200	
61.2	7.700	
61.4	7.700	
61.6	7.700	
61.8	7.700	
62.0	8.200	
62.2	8.200	
62.4	7.200	
62.6	7.200	
62.8	6.700	
63.0	6.700	
63.2	6.700	
63.4	6.700	
63.6	6.700	
63.8	6.700	
64.0	6.700	
64.2	6.700	
64.4	7.200	
64.6	6.700	
64.8	6.200	
65.0	6.200	
65.2	6.200	
65.4	6.700	
65.6	7.200	
65.8	6.700	
66.0	6.700	
66.2	6.700	
66.4	6.700	
66.6	-20695.699	
66.8	-25617.000	
67.0	-30418.699	
67.2	-32639.100	
67.4	-26951.400	
67.6	-19437.600	
67.8	-17768.199	
68.0	-10771.800	
68.2	-6354.100	
