DASYLab - V 9.00.02
Worksheet name: LeakageCurrentTesterV4DevSML40sAna200V
Recording Date     : 18-03-2014, 09:12:09
Block Length       : 1
Delta              : 0.2 sec.
Number of Channels : 1
Measurement time[s]	Write 0 [nA]	
0.0	0.000	
0.2	0.000	
0.4	0.000	
0.6	0.000	
0.8	0.000	
1.0	14.900	
1.2	14.400	
1.4	13.400	
1.6	13.400	
1.8	13.400	
2.0	13.400	
2.2	13.400	
2.4	3038.400	
2.6	3038.400	
2.8	3299.200	
3.0	3299.200	
3.2	3302.800	
3.4	3080.200	
3.6	1210.700	
3.8	784.000	
4.0	584.000	
4.2	473.200	
4.4	400.500	
4.6	344.800	
4.8	298.900	
5.0	272.700	
5.2	246.900	
5.4	221.600	
5.6	211.800	
5.8	208.200	
6.0	178.900	
6.2	175.200	
6.4	172.700	
6.6	168.500	
6.8	162.900	
7.0	141.200	
7.2	139.200	
7.4	136.600	
7.6	-190.200	
7.8	-460.800	
8.0	-874.200	
8.2	-1916.300	
8.4	-14487.000	
8.6	-31352.100	
8.8	-16441.500	
9.0	-7994.200	
9.2	-3861.000	
9.4	-1957.100	
9.6	-1106.600	
9.8	-711.800	
10.0	-507.700	
10.2	269.100	
10.4	269.100	
10.6	850.400	
10.8	850.400	
11.0	1059.700	
11.2	1059.700	
11.4	1360.700	
11.6	548.900	
11.8	368.500	
12.0	283.000	
12.2	231.400	
12.4	204.100	
12.6	179.900	
12.8	160.800	
13.0	146.900	
13.2	143.300	
13.4	138.600	
13.6	111.300	
13.8	111.300	
14.0	108.200	
14.2	105.100	
14.4	100.000	
14.6	93.800	
14.8	89.700	
15.0	85.600	
15.2	82.500	
15.4	79.400	
15.6	-170.100	
15.8	-432.400	
16.0	-910.200	
16.2	-4089.900	
16.4	-19602.500	
16.6	-26312.799	
16.8	-15045.200	
17.0	-8298.300	
17.2	-4499.600	
17.4	-2449.300	
17.6	-1400.400	
17.8	-870.000	
18.0	-586.600	
18.2	240.200	
18.4	240.200	
18.6	240.200	
18.8	737.600	
19.0	899.400	
19.2	899.400	
19.4	1056.100	
19.6	425.700	
19.8	335.500	
20.0	241.700	
20.2	189.200	
20.4	146.900	
20.6	134.000	
20.8	131.900	
21.0	127.800	
21.2	102.600	
21.4	101.000	
21.6	98.400	
21.8	80.400	
22.0	80.400	
22.2	78.900	
22.4	75.800	
22.6	72.700	
22.8	70.600	
23.0	66.000	
23.2	64.900	
23.4	61.300	
23.6	-155.100	
23.8	-26050.500	
24.0	-30925.801	
24.2	-34913.699	
24.4	-18299.602	
24.6	-20835.898	
24.8	-19203.100	
25.0	-10876.400	
25.2	-5997.500	
25.4	-2433.300	
25.6	-1388.000	
25.8	-1082.900	
26.0	-698.400	
26.2	210.300	
26.4	210.300	
26.6	210.300	
26.8	698.900	
27.0	698.900	
27.2	845.800	
27.4	845.800	
27.6	376.800	
27.8	290.200	
28.0	210.300	
28.2	177.300	
28.4	137.100	
28.6	125.800	
28.8	122.700	
29.0	98.400	
29.2	94.800	
29.4	92.800	
29.6	89.700	
29.8	85.000	
30.0	79.900	
30.2	75.300	
30.4	59.800	
30.6	60.300	
30.8	60.300	
31.0	60.300	
31.2	59.300	
31.4	57.700	
31.6	56.200	
31.8	52.600	
32.0	50.000	
32.2	48.400	
32.4	45.900	
32.6	45.900	
32.8	45.900	
33.0	44.800	
33.2	43.800	
33.4	41.200	
33.6	40.700	
33.8	40.200	
34.0	39.700	
34.2	39.200	
34.4	38.100	
34.6	36.100	
34.8	35.600	
35.0	34.500	
35.2	34.500	
35.4	35.000	
35.6	34.000	
35.8	33.500	
36.0	32.000	
36.2	31.400	
36.4	31.400	
36.6	32.000	
36.8	32.500	
37.0	32.500	
37.2	31.400	
37.4	30.900	
37.6	30.900	
37.8	30.400	
38.0	29.900	
38.2	29.900	
38.4	29.400	
38.6	28.900	
38.8	29.900	
39.0	28.900	
39.2	27.800	
39.4	27.300	
39.6	25.800	
39.8	25.300	
40.0	24.700	
40.2	24.200	
40.4	23.700	
40.6	22.700	
40.8	22.700	
41.0	22.700	
41.2	22.700	
41.4	22.200	
41.6	21.600	
41.8	21.100	
42.0	20.600	
42.2	20.100	
42.4	20.100	
42.6	19.100	
42.8	18.000	
43.0	17.000	
43.2	16.500	
43.4	16.500	
43.6	17.000	
43.8	17.000	
44.0	18.000	
44.2	17.500	
44.4	17.000	
44.6	16.500	
44.8	16.000	
45.0	16.000	
45.2	16.000	
45.4	16.500	
45.6	16.500	
45.8	17.500	
46.0	17.500	
46.2	17.500	
46.4	18.600	
46.6	18.000	
46.8	18.000	
47.0	17.500	
47.2	16.500	
47.4	16.000	
47.6	16.000	
47.8	15.500	
48.0	14.900	
48.2	15.500	
48.4	15.500	
48.6	16.000	
48.8	16.000	
49.0	15.500	
49.2	14.900	
49.4	15.500	
49.6	15.500	
49.8	16.500	
50.0	17.000	
50.2	16.500	
50.4	17.000	
50.6	16.500	
50.8	16.500	
51.0	17.000	
51.2	16.500	
51.4	17.000	
51.6	16.500	
51.8	16.500	
52.0	17.500	
52.2	17.500	
52.4	18.600	
52.6	18.600	
52.8	18.600	
53.0	18.600	
53.2	18.600	
53.4	18.000	
53.6	17.000	
53.8	17.000	
54.0	16.500	
54.2	16.500	
54.4	16.500	
54.6	16.000	
54.8	16.500	
55.0	16.500	
55.2	16.500	
55.4	16.500	
55.6	16.000	
55.8	15.500	
56.0	15.500	
56.2	14.900	
56.4	14.900	
56.6	14.900	
56.8	15.500	
57.0	15.500	
57.2	16.500	
57.4	16.500	
57.6	17.000	
57.8	18.000	
58.0	18.000	
58.2	18.000	
58.4	18.000	
58.6	16.500	
58.8	15.500	
59.0	13.900	
59.2	12.400	
59.4	11.300	
59.6	10.800	
59.8	11.300	
60.0	10.800	
60.2	10.800	
60.4	10.300	
60.6	9.800	
60.8	9.800	
61.0	9.300	
61.2	9.300	
61.4	9.800	
61.6	9.800	
61.8	9.300	
62.0	8.800	
62.2	8.200	
62.4	8.800	
62.6	9.300	
62.8	9.800	
63.0	10.300	
63.2	10.800	
63.4	10.800	
63.6	10.800	
63.8	11.300	
64.0	10.800	
64.2	10.800	
64.4	10.800	
64.6	10.800	
64.8	10.800	
65.0	10.800	
65.2	10.300	
65.4	10.300	
65.6	10.300	
65.8	10.300	
66.0	10.800	
66.2	10.800	
66.4	10.300	
66.6	-20537.500	
66.8	-25697.398	
67.0	-30568.701	
67.2	-32353.100	
67.4	-27090.100	
67.6	-19826.701	
67.8	-17759.398	
68.0	-10837.800	
68.2	-6438.700	
