DASYLab - V 9.00.02
Worksheet name: LeakageCurrentTesterV4DevSML40sAna200V
Recording Date     : 18-03-2014, 09:17:17
Block Length       : 1
Delta              : 0.2 sec.
Number of Channels : 1
Measurement time[s]	Write 0 [nA]	
0.0	0.000	
0.2	0.000	
0.4	0.000	
0.6	-98.400	
0.8	-98.400	
1.0	-96.900	
1.2	-94.300	
1.4	-91.200	
1.6	-88.100	
1.8	-85.600	
2.0	-82.500	
2.2	402.500	
2.4	402.500	
2.6	1028.300	
2.8	1028.300	
3.0	1151.500	
3.2	1151.500	
3.4	1111.800	
3.6	345.800	
3.8	215.400	
4.0	150.500	
4.2	122.700	
4.4	107.200	
4.6	103.600	
4.8	84.500	
5.0	77.800	
5.2	75.800	
5.4	55.700	
5.6	57.200	
5.8	56.700	
6.0	55.200	
6.2	52.600	
6.4	49.500	
6.6	46.900	
6.8	44.800	
7.0	43.300	
7.2	41.200	
7.4	39.200	
7.6	-242.200	
7.8	-675.200	
8.0	-4996.000	
8.2	-14634.400	
8.4	-26137.600	
8.6	-25857.201	
8.8	-14351.400	
9.0	-7667.900	
9.2	-4022.400	
9.4	-2115.300	
9.6	-1169.000	
9.8	-706.100	
10.0	-474.700	
10.2	309.800	
10.4	309.800	
10.6	918.500	
10.8	918.500	
11.0	1048.900	
11.2	1050.900	
11.4	1014.400	
11.6	314.400	
11.8	193.300	
12.0	139.700	
12.2	116.000	
12.4	95.400	
12.6	84.500	
12.8	82.500	
13.0	62.400	
13.2	59.300	
13.4	56.700	
13.6	53.100	
13.8	49.000	
14.0	44.300	
14.2	41.700	
14.4	39.700	
14.6	37.600	
14.8	36.100	
15.0	34.500	
15.2	32.500	
15.4	31.400	
15.6	-252.000	
15.8	-717.500	
16.0	-6056.700	
16.2	-15248.300	
16.4	-26575.199	
16.6	-24601.102	
16.8	-14154.500	
17.0	-7842.700	
17.2	-4255.300	
17.4	-2305.000	
17.6	-1285.500	
17.8	-774.200	
18.0	-508.200	
18.2	288.100	
18.4	664.400	
18.6	664.400	
18.8	999.400	
19.0	1014.900	
19.2	1014.900	
19.4	982.400	
19.6	306.200	
19.8	188.100	
20.0	137.600	
20.2	114.900	
20.4	93.800	
20.6	86.100	
20.8	68.000	
21.0	67.000	
21.2	65.500	
21.4	62.900	
21.6	59.300	
21.8	55.200	
22.0	51.000	
22.2	46.900	
22.4	44.300	
22.6	41.700	
22.8	39.700	
23.0	38.100	
23.2	36.100	
23.4	35.000	
23.6	-245.300	
23.8	-688.600	
24.0	-6279.900	
24.2	-15169.400	
24.4	-25985.000	
24.6	-24209.900	
24.8	-13959.200	
25.0	-7755.600	
25.2	-4219.800	
25.4	-2290.000	
25.6	-1276.200	
25.8	-769.500	
26.0	-505.600	
26.2	272.100	
26.4	272.100	
26.6	830.300	
26.8	916.400	
27.0	916.400	
27.2	938.100	
27.4	938.100	
27.6	292.200	
27.8	170.100	
28.0	124.700	
28.2	105.700	
28.4	92.300	
28.6	89.200	
28.8	66.000	
29.0	57.700	
29.2	56.200	
29.4	54.100	
29.6	50.000	
29.8	47.400	
30.0	44.300	
30.2	41.700	
30.4	39.200	
30.6	36.600	
30.8	34.000	
31.0	32.000	
31.2	29.900	
31.4	28.900	
31.6	27.800	
31.8	26.300	
32.0	25.300	
32.2	23.700	
32.4	22.200	
32.6	21.100	
32.8	20.100	
33.0	20.100	
33.2	19.600	
33.4	19.600	
33.6	20.100	
33.8	20.100	
34.0	19.600	
34.2	19.600	
34.4	18.600	
34.6	17.500	
34.8	16.500	
35.0	15.500	
35.2	14.900	
35.4	14.900	
35.6	15.500	
35.8	15.500	
36.0	15.500	
36.2	14.900	
36.4	14.400	
36.6	13.900	
36.8	13.900	
37.0	13.900	
37.2	12.900	
37.4	12.400	
37.6	11.900	
37.8	12.400	
38.0	12.400	
38.2	12.400	
38.4	12.400	
38.6	11.300	
38.8	11.300	
39.0	11.300	
39.2	9.800	
39.4	9.800	
39.6	9.800	
39.8	9.300	
40.0	10.800	
40.2	10.800	
40.4	10.300	
40.6	10.300	
40.8	9.300	
41.0	9.300	
41.2	8.800	
41.4	9.300	
41.6	9.800	
41.8	10.300	
42.0	10.800	
42.2	10.300	
42.4	9.800	
42.6	8.800	
42.8	9.300	
43.0	9.300	
43.2	9.800	
43.4	10.300	
43.6	9.300	
43.8	9.300	
44.0	8.200	
44.2	8.200	
44.4	7.700	
44.6	7.700	
44.8	7.700	
45.0	8.200	
45.2	8.200	
45.4	8.200	
45.6	8.200	
45.8	7.700	
46.0	7.700	
46.2	7.200	
46.4	7.200	
46.6	7.200	
46.8	7.200	
47.0	7.700	
47.2	7.700	
47.4	7.200	
47.6	7.200	
47.8	7.200	
48.0	7.200	
48.2	7.700	
48.4	7.200	
48.6	7.700	
48.8	8.200	
49.0	8.800	
49.2	9.300	
49.4	9.800	
49.6	10.300	
49.8	10.300	
50.0	10.300	
50.2	9.800	
50.4	9.300	
50.6	9.300	
50.8	9.300	
51.0	9.300	
51.2	9.300	
51.4	9.800	
51.6	11.300	
51.8	13.400	
52.0	16.000	
52.2	17.000	
52.4	16.500	
52.6	16.500	
52.8	15.500	
53.0	15.500	
53.2	14.900	
53.4	14.400	
53.6	13.900	
53.8	13.400	
54.0	12.900	
54.2	12.400	
54.4	12.400	
54.6	11.900	
54.8	11.300	
55.0	10.800	
55.2	10.800	
55.4	11.300	
55.6	11.900	
55.8	11.900	
56.0	10.800	
56.2	9.800	
56.4	9.800	
56.6	9.800	
56.8	9.800	
57.0	9.800	
57.2	9.800	
57.4	10.300	
57.6	9.800	
57.8	9.300	
58.0	8.800	
58.2	9.300	
58.4	10.300	
58.6	10.800	
58.8	10.800	
59.0	10.300	
59.2	9.300	
59.4	8.200	
59.6	7.700	
59.8	7.200	
60.0	6.700	
60.2	6.700	
60.4	6.700	
60.6	6.700	
60.8	6.200	
61.0	5.200	
61.2	5.200	
61.4	5.200	
61.6	4.600	
61.8	4.600	
62.0	5.200	
62.2	4.600	
62.4	4.600	
62.6	5.200	
62.8	4.100	
63.0	3.600	
63.2	4.100	
63.4	3.600	
63.6	4.600	
63.8	5.200	
64.0	4.600	
64.2	5.200	
64.4	5.700	
64.6	5.200	
64.8	5.200	
65.0	5.200	
65.2	4.600	
65.4	4.600	
65.6	4.600	
65.8	4.100	
66.0	3.600	
66.2	3.600	
66.4	3.600	
66.6	-220.100	
66.8	-594.300	
67.0	-4727.500	
67.2	-13261.800	
67.4	-24750.602	
67.6	-21579.701	
67.8	-13347.399	
68.0	-7983.900	
68.2	-4671.300	
