DASYLab - V 9.00.02
Worksheet name: LeakageCurrentTesterV4DevSML40sAna200V
Recording Date     : 18-03-2014, 09:18:41
Block Length       : 1
Delta              : 0.2 sec.
Number of Channels : 1
Measurement time[s]	Write 0 [nA]	
0.0	17.000	
0.2	17.000	
0.4	17.000	
0.6	16.000	
0.8	16.000	
1.0	16.000	
1.2	15.500	
1.4	14.900	
1.6	14.900	
1.8	14.900	
2.0	14.900	
2.2	14.900	
2.4	2681.200	
2.6	2681.200	
2.8	3081.200	
3.0	3081.200	
3.2	3131.700	
3.4	3131.700	
3.6	1094.800	
3.8	694.800	
4.0	505.600	
4.2	401.500	
4.4	337.100	
4.6	284.500	
4.8	250.000	
5.0	221.100	
5.2	198.400	
5.4	186.100	
5.6	181.900	
5.8	158.200	
6.0	150.500	
6.2	147.900	
6.4	143.800	
6.6	137.100	
6.8	115.500	
7.0	113.400	
7.2	111.800	
7.4	109.300	
7.6	-210.800	
7.8	-485.500	
8.0	-922.100	
8.2	-2006.000	
8.4	-15935.300	
8.6	-29643.500	
8.8	-15285.400	
9.0	-7592.700	
9.2	-3754.300	
9.4	-1931.300	
9.6	-1100.400	
9.8	-704.100	
10.0	-500.000	
10.2	256.200	
10.4	592.700	
10.6	592.700	
10.8	934.500	
11.0	934.500	
11.2	934.500	
11.4	1269.000	
11.6	518.500	
11.8	339.700	
12.0	255.100	
12.2	212.900	
12.4	185.000	
12.6	161.300	
12.8	152.000	
13.0	147.900	
13.2	120.100	
13.4	110.800	
13.6	109.300	
13.8	106.200	
14.0	86.600	
14.2	87.100	
14.4	84.500	
14.6	83.000	
14.8	82.500	
15.0	63.900	
15.2	66.500	
15.4	66.500	
15.6	-166.500	
15.8	-404.100	
16.0	-846.800	
16.2	-3653.800	
16.4	-17755.301	
16.6	-25043.301	
16.8	-14376.200	
17.0	-7974.100	
17.2	-4346.000	
17.4	-2374.000	
17.6	-1356.600	
17.8	-832.400	
18.0	-561.800	
18.2	229.400	
18.4	229.400	
18.6	229.400	
18.8	712.800	
19.0	712.800	
19.2	870.000	
19.4	1014.400	
19.6	409.800	
19.8	317.500	
20.0	227.800	
20.2	177.300	
20.4	150.000	
20.6	131.900	
20.8	112.900	
21.0	106.700	
21.2	104.600	
21.4	86.100	
21.6	82.500	
21.8	82.000	
22.0	79.900	
22.2	77.300	
22.4	71.100	
22.6	67.500	
22.8	66.000	
23.0	61.300	
23.2	57.700	
23.4	55.700	
23.6	-157.200	
23.8	-25423.701	
24.0	-795.300	
24.2	-3536.300	
24.4	-27479.201	
24.6	-20333.400	
24.8	-18357.799	
25.0	-10430.101	
25.2	-5773.200	
25.4	-3172.400	
25.6	-1763.300	
25.8	-1044.800	
26.0	-672.100	
26.2	1721.000	
26.4	6888.100	
26.6	500.000	
26.8	500.000	
27.0	782.900	
27.2	782.900	
27.4	6264.400	
27.6	354.100	
27.8	277.300	
28.0	199.000	
28.2	164.900	
28.4	135.600	
28.6	121.100	
28.8	96.900	
29.0	92.800	
29.2	90.200	
29.4	86.600	
29.6	82.000	
29.8	76.300	
30.0	70.600	
30.2	66.000	
30.4	62.400	
30.6	58.800	
30.8	56.200	
31.0	53.100	
31.2	50.500	
31.4	48.400	
31.6	46.900	
31.8	45.900	
32.0	44.800	
32.2	42.800	
32.4	41.200	
32.6	39.200	
32.8	38.700	
33.0	37.600	
33.2	37.100	
33.4	36.600	
33.6	34.500	
33.8	33.500	
34.0	33.000	
34.2	32.500	
34.4	32.000	
34.6	31.400	
34.8	30.400	
35.0	28.900	
35.2	28.900	
35.4	28.300	
35.6	26.800	
35.8	25.800	
36.0	24.200	
36.2	22.700	
36.4	22.200	
36.6	21.600	
36.8	21.600	
37.0	21.100	
37.2	21.100	
37.4	20.600	
37.6	19.100	
37.8	18.600	
38.0	18.600	
38.2	18.600	
38.4	18.600	
38.6	18.600	
38.8	18.000	
39.0	17.500	
39.2	17.500	
39.4	17.000	
39.6	16.500	
39.8	16.500	
40.0	16.000	
40.2	16.000	
40.4	15.500	
40.6	16.000	
40.8	16.000	
41.0	16.500	
41.2	17.000	
41.4	17.000	
41.6	16.500	
41.8	15.500	
42.0	14.900	
42.2	14.900	
42.4	14.400	
42.6	14.400	
42.8	13.900	
43.0	14.400	
43.2	13.900	
43.4	13.400	
43.6	13.400	
43.8	12.400	
44.0	11.900	
44.2	12.400	
44.4	11.900	
44.6	12.400	
44.8	12.900	
45.0	13.900	
45.2	15.500	
45.4	16.500	
45.6	17.000	
45.8	17.000	
46.0	16.000	
46.2	16.500	
46.4	17.500	
46.6	17.000	
46.8	16.500	
47.0	15.500	
47.2	14.900	
47.4	16.000	
47.6	16.000	
47.8	16.000	
48.0	16.500	
48.2	16.500	
48.4	16.500	
48.6	16.000	
48.8	13.900	
49.0	12.400	
49.2	12.400	
49.4	12.900	
49.6	14.400	
49.8	15.500	
50.0	16.000	
50.2	16.000	
50.4	15.500	
50.6	13.900	
50.8	13.900	
51.0	13.900	
51.2	13.900	
51.4	14.900	
51.6	14.900	
51.8	14.900	
52.0	14.900	
52.2	14.900	
52.4	14.400	
52.6	13.900	
52.8	12.400	
53.0	11.300	
53.2	10.800	
53.4	10.300	
53.6	10.300	
53.8	9.800	
54.0	9.300	
54.2	8.800	
54.4	8.200	
54.6	8.200	
54.8	7.200	
55.0	7.200	
55.2	7.200	
55.4	7.200	
55.6	6.700	
55.8	6.700	
56.0	6.700	
56.2	7.200	
56.4	7.700	
56.6	7.700	
56.8	7.700	
57.0	7.700	
57.2	7.700	
57.4	8.200	
57.6	8.800	
57.8	7.200	
58.0	6.700	
58.2	6.200	
58.4	5.700	
58.6	6.700	
58.8	6.200	
59.0	6.200	
59.2	6.700	
59.4	7.200	
59.6	7.700	
59.8	8.200	
60.0	8.200	
60.2	8.200	
60.4	8.200	
60.6	7.700	
60.8	7.200	
61.0	7.200	
61.2	7.700	
61.4	7.700	
61.6	7.700	
61.8	7.700	
62.0	7.700	
62.2	7.700	
62.4	7.700	
62.6	8.200	
62.8	8.200	
63.0	7.700	
63.2	7.700	
63.4	7.200	
63.6	6.700	
63.8	6.700	
64.0	6.200	
64.2	6.700	
64.4	6.700	
64.6	6.700	
64.8	6.200	
65.0	6.700	
65.2	7.200	
65.4	7.200	
65.6	8.200	
65.8	8.800	
66.0	9.300	
66.2	10.300	
66.4	9.800	
66.6	-20212.299	
66.8	-25318.100	
67.0	-29931.600	
67.2	-33259.199	
67.4	-27444.201	
67.6	-19736.500	
67.8	-16938.801	
68.0	-10340.399	
68.2	-6150.500	
